#------------------------------------------------------------------------------
# cpd-1a.prn â€” powder diffraction data from the IUCr QPA Round Robin
# Source: https://www.iucr.org/__data/iucr/powder/QARR/col/cpd-1a.prn
#------------------------------------------------------------------------------
   5.000       153
   5.020       161
   5.040       141
   5.060       141
   5.080       148
   5.100       163
   5.120       139
   5.140       139
   5.160       129
   5.180       132
   5.200       129
   5.220       129
   5.240       151
   5.260       121
   5.280       129
   5.300       127
   5.320       127
   5.340       151
   5.360       139
   5.380       146
   5.400       129
   5.420       134
   5.440       125
   5.460       114
   5.480       129
   5.500       127
   5.520       125
   5.540       129
   5.560       121
   5.580       121
   5.600       123
   5.620       141
   5.640       136
   5.660       114
   5.680       125
   5.700       136
   5.720       123
   5.740       129
   5.760       129
   5.780       127
   5.800       132
   5.820       112
   5.840       123
   5.860       104
   5.880       141
   5.900       127
   5.920       100
   5.940       108
   5.960       123
   5.980       127
   6.000       116
   6.020       116
   6.040       121
   6.060       139
   6.080       125
   6.100       100
   6.120       116
   6.140       125
   6.160       116
   6.180       116
   6.200       118
   6.220       123
   6.240       141
   6.260       121
   6.280       121
   6.300       106
   6.320       102
   6.340        96
   6.360       112
   6.380       121
   6.400       118
   6.420       112
   6.440       121
   6.460       118
   6.480        90
   6.500       106
   6.520       108
   6.540       121
   6.560       110
   6.580        96
   6.600        98
   6.620       116
   6.640       100
   6.660       121
   6.680       108
   6.700       104
   6.720        92
   6.740        98
   6.760        98
   6.780        98
   6.800       106
   6.820       104
   6.840       104
   6.860        94
   6.880       100
   6.900       102
   6.920        92
   6.940        92
   6.960        96
   6.980        90
   7.000       100
   7.020       106
   7.040       110
   7.060        92
   7.080       106
   7.100        82
   7.120        82
   7.140       108
   7.160        82
   7.180       104
   7.200       110
   7.220        96
   7.240        86
   7.260       108
   7.280       104
   7.300        94
   7.320       100
   7.340        88
   7.360        92
   7.380        88
   7.400       110
   7.420        94
   7.440        92
   7.460        94
   7.480        96
   7.500        98
   7.520        98
   7.540        92
   7.560        79
   7.580        88
   7.600        88
   7.620        72
   7.640        84
   7.660        98
   7.680        96
   7.700        86
   7.720        92
   7.740        94
   7.760        96
   7.780        82
   7.800        81
   7.820        81
   7.840        79
   7.860        88
   7.880        72
   7.900        86
   7.920        92
   7.940        98
   7.960        70
   7.980        92
   8.000        92
   8.020        79
   8.040        70
   8.060        84
   8.080        79
   8.100        86
   8.120        81
   8.140        98
   8.160        72
   8.180        92
   8.200        65
   8.220        79
   8.240        82
   8.260        92
   8.280        82
   8.300        70
   8.320        79
   8.340        96
   8.360        82
   8.380        84
   8.400        75
   8.420        75
   8.440        70
   8.460        68
   8.480        92
   8.500       100
   8.520        57
   8.540        62
   8.560        72
   8.580        81
   8.600        81
   8.620        75
   8.640        73
   8.660        75
   8.680        79
   8.700        79
   8.720        77
   8.740        92
   8.760        67
   8.780        75
   8.800        64
   8.820        75
   8.840        79
   8.860        68
   8.880        75
   8.900        92
   8.920        88
   8.940        79
   8.960        70
   8.980        75
   9.000        75
   9.020        77
   9.040        70
   9.060        75
   9.080        75
   9.100        86
   9.120        65
   9.140        75
   9.160        67
   9.180        72
   9.200        84
   9.220        86
   9.240        77
   9.260        70
   9.280        64
   9.300        77
   9.320        54
   9.340        72
   9.360        72
   9.380        70
   9.400        67
   9.420        53
   9.440        62
   9.460        70
   9.480        64
   9.500        72
   9.520        56
   9.540        64
   9.560        75
   9.580        65
   9.600        65
   9.620        65
   9.640        64
   9.660        77
   9.680        42
   9.700        67
   9.720        62
   9.740        62
   9.760        64
   9.780        65
   9.800        67
   9.820        72
   9.840        59
   9.860        54
   9.880        50
   9.900        65
   9.920        59
   9.940        62
   9.960        67
   9.980        56
  10.000        53
  10.020        65
  10.040        72
  10.060        59
  10.080        50
  10.100        60
  10.120        65
  10.140        59
  10.160        67
  10.180        56
  10.200        50
  10.220        65
  10.240        62
  10.260        70
  10.280        64
  10.300        67
  10.320        70
  10.340        64
  10.360        49
  10.380        64
  10.400        54
  10.420        59
  10.440        53
  10.460        62
  10.480        59
  10.500        56
  10.520        70
  10.540        51
  10.560        72
  10.580        59
  10.600        57
  10.620        50
  10.640        60
  10.660        56
  10.680        62
  10.700        50
  10.720        70
  10.740        50
  10.760        57
  10.780        67
  10.800        75
  10.820        65
  10.840        46
  10.860        60
  10.880        54
  10.900        65
  10.920        59
  10.940        56
  10.960        59
  10.980        64
  11.000        62
  11.020        39
  11.040        56
  11.060        65
  11.080        60
  11.100        56
  11.120        46
  11.140        43
  11.160        68
  11.180        59
  11.200        47
  11.220        54
  11.240        65
  11.260        51
  11.280        49
  11.300        47
  11.320        62
  11.340        50
  11.360        68
  11.380        50
  11.400        64
  11.420        56
  11.440        49
  11.460        47
  11.480        47
  11.500        54
  11.520        60
  11.540        50
  11.560        53
  11.580        47
  11.600        56
  11.620        56
  11.640        65
  11.660        50
  11.680        50
  11.700        49
  11.720        56
  11.740        47
  11.760        50
  11.780        50
  11.800        56
  11.820        43
  11.840        47
  11.860        53
  11.880        56
  11.900        49
  11.920        50
  11.940        57
  11.960        50
  11.980        53
  12.000        47
  12.020        53
  12.040        43
  12.060        46
  12.080        40
  12.100        56
  12.120        54
  12.140        49
  12.160        59
  12.180        44
  12.200        49
  12.220        50
  12.240        51
  12.260        56
  12.280        44
  12.300        46
  12.320        50
  12.340        42
  12.360        50
  12.380        38
  12.400        53
  12.420        50
  12.440        53
  12.460        47
  12.480        50
  12.500        50
  12.520        54
  12.540        38
  12.560        43
  12.580        56
  12.600        43
  12.620        49
  12.640        56
  12.660        59
  12.680        43
  12.700        42
  12.720        43
  12.740        47
  12.760        38
  12.780        44
  12.800        43
  12.820        50
  12.840        37
  12.860        42
  12.880        49
  12.900        50
  12.920        47
  12.940        50
  12.960        51
  12.980        51
  13.000        43
  13.020        62
  13.040        42
  13.060        53
  13.080        40
  13.100        51
  13.120        56
  13.140        26
  13.160        36
  13.180        64
  13.200        51
  13.220        49
  13.240        47
  13.260        44
  13.280        51
  13.300        39
  13.320        54
  13.340        40
  13.360        50
  13.380        47
  13.400        53
  13.420        46
  13.440        34
  13.460        49
  13.480        43
  13.500        43
  13.520        47
  13.540        51
  13.560        60
  13.580        43
  13.600        44
  13.620        44
  13.640        40
  13.660        56
  13.680        42
  13.700        33
  13.720        42
  13.740        46
  13.760        36
  13.780        42
  13.800        49
  13.820        49
  13.840        40
  13.860        46
  13.880        56
  13.900        50
  13.920        32
  13.940        38
  13.960        38
  13.980        42
  14.000        50
  14.020        38
  14.040        43
  14.060        40
  14.080        40
  14.100        47
  14.120        50
  14.140        54
  14.160        42
  14.180        38
  14.200        32
  14.220        42
  14.240        33
  14.260        38
  14.280        34
  14.300        47
  14.320        34
  14.340        46
  14.360        46
  14.380        43
  14.400        49
  14.420        46
  14.440        42
  14.460        38
  14.480        43
  14.500        43
  14.520        26
  14.540        40
  14.560        37
  14.580        30
  14.600        34
  14.620        37
  14.640        36
  14.660        40
  14.680        40
  14.700        38
  14.720        29
  14.740        38
  14.760        38
  14.780        43
  14.800        36
  14.820        24
  14.840        39
  14.860        37
  14.880        34
  14.900        42
  14.920        47
  14.940        40
  14.960        33
  14.980        32
  15.000        36
  15.020        37
  15.040        34
  15.060        37
  15.080        37
  15.100        39
  15.120        25
  15.140        40
  15.160        39
  15.180        37
  15.200        39
  15.220        43
  15.240        36
  15.260        43
  15.280        40
  15.300        32
  15.320        38
  15.340        36
  15.360        30
  15.380        32
  15.400        37
  15.420        31
  15.440        43
  15.460        42
  15.480        38
  15.500        39
  15.520        39
  15.540        32
  15.560        30
  15.580        46
  15.600        31
  15.620        36
  15.640        24
  15.660        34
  15.680        43
  15.700        30
  15.720        43
  15.740        34
  15.760        39
  15.780        40
  15.800        38
  15.820        28
  15.840        33
  15.860        44
  15.880        38
  15.900        38
  15.920        33
  15.940        32
  15.960        40
  15.980        37
  16.000        30
  16.020        36
  16.040        29
  16.060        36
  16.080        32
  16.100        32
  16.120        32
  16.140        42
  16.160        32
  16.180        38
  16.200        36
  16.220        32
  16.240        37
  16.260        32
  16.280        36
  16.300        34
  16.320        36
  16.340        38
  16.360        34
  16.380        31
  16.400        42
  16.420        42
  16.440        39
  16.460        38
  16.480        31
  16.500        36
  16.520        28
  16.540        34
  16.560        36
  16.580        26
  16.600        31
  16.620        38
  16.640        43
  16.660        20
  16.680        38
  16.700        39
  16.720        20
  16.740        39
  16.760        23
  16.780        38
  16.800        32
  16.820        28
  16.840        38
  16.860        17
  16.880        27
  16.900        43
  16.920        29
  16.940        44
  16.960        31
  16.980        27
  17.000        32
  17.020        27
  17.040        26
  17.060        24
  17.080        23
  17.100        34
  17.120        38
  17.140        37
  17.160        30
  17.180        32
  17.200        26
  17.220        26
  17.240        32
  17.260        38
  17.280        29
  17.300        40
  17.320        33
  17.340        34
  17.360        34
  17.380        29
  17.400        27
  17.420        31
  17.440        37
  17.460        31
  17.480        30
  17.500        25
  17.520        22
  17.540        33
  17.560        25
  17.580        23
  17.600        29
  17.620        38
  17.640        32
  17.660        29
  17.680        27
  17.700        29
  17.720        20
  17.740        39
  17.760        33
  17.780        31
  17.800        32
  17.820        29
  17.840        27
  17.860        40
  17.880        36
  17.900        31
  17.920        21
  17.940        25
  17.960        31
  17.980        24
  18.000        28
  18.020        32
  18.040        30
  18.060        28
  18.080        31
  18.100        23
  18.120        34
  18.140        26
  18.160        26
  18.180        29
  18.200        29
  18.220        28
  18.240        38
  18.260        32
  18.280        21
  18.300        33
  18.320        30
  18.340        26
  18.360        31
  18.380        42
  18.400        32
  18.420        32
  18.440        36
  18.460        33
  18.480        21
  18.500        30
  18.520        26
  18.540        40
  18.560        25
  18.580        23
  18.600        16
  18.620        42
  18.640        29
  18.660        25
  18.680        31
  18.700        21
  18.720        31
  18.740        23
  18.760        26
  18.780        27
  18.800        29
  18.820        33
  18.840        29
  18.860        34
  18.880        32
  18.900        34
  18.920        30
  18.940        32
  18.960        23
  18.980        31
  19.000        26
  19.020        26
  19.040        23
  19.060        24
  19.080        25
  19.100        34
  19.120        32
  19.140        38
  19.160        36
  19.180        24
  19.200        32
  19.220        24
  19.240        31
  19.260        22
  19.280        29
  19.300        23
  19.320        32
  19.340        27
  19.360        25
  19.380        26
  19.400        25
  19.420        23
  19.440        33
  19.460        31
  19.480        28
  19.500        28
  19.520        26
  19.540        31
  19.560        21
  19.580        21
  19.600        38
  19.620        30
  19.640        26
  19.660        34
  19.680        25
  19.700        21
  19.720        22
  19.740        28
  19.760        38
  19.780        22
  19.800        28
  19.820        19
  19.840        25
  19.860        29
  19.880        29
  19.900        28
  19.920        24
  19.940        39
  19.960        26
  19.980        24
  20.000        16
  20.020        22
  20.040        29
  20.060        32
  20.080        16
  20.100        26
  20.120        26
  20.140        25
  20.160        22
  20.180        30
  20.200        36
  20.220        25
  20.240        20
  20.260        28
  20.280        27
  20.300        16
  20.320        26
  20.340        21
  20.360        22
  20.380        25
  20.400        20
  20.420        22
  20.440        23
  20.460        20
  20.480        28
  20.500        44
  20.520        26
  20.540        23
  20.560        17
  20.580        28
  20.600        12
  20.620        24
  20.640        25
  20.660        31
  20.680        23
  20.700        28
  20.720        28
  20.740        23
  20.760        19
  20.780        34
  20.800        24
  20.820        26
  20.840        25
  20.860        24
  20.880        23
  20.900        17
  20.920        21
  20.940        29
  20.960        24
  20.980        19
  21.000        19
  21.020        27
  21.040        17
  21.060        32
  21.080        28
  21.100        22
  21.120        17
  21.140        19
  21.160        24
  21.180        30
  21.200        22
  21.220        30
  21.240        23
  21.260        32
  21.280        22
  21.300        21
  21.320        30
  21.340        22
  21.360        20
  21.380        24
  21.400        20
  21.420        23
  21.440        26
  21.460        22
  21.480        25
  21.500        28
  21.520        33
  21.540        24
  21.560        31
  21.580        17
  21.600        26
  21.620        16
  21.640        27
  21.660        26
  21.680        24
  21.700        22
  21.720        20
  21.740        26
  21.760        26
  21.780        25
  21.800        15
  21.820        24
  21.840        25
  21.860        19
  21.880        28
  21.900        13
  21.920        31
  21.940        27
  21.960        20
  21.980        31
  22.000        12
  22.020        26
  22.040        32
  22.060        21
  22.080        24
  22.100        30
  22.120        17
  22.140        29
  22.160        25
  22.180        16
  22.200        17
  22.220        26
  22.240        28
  22.260        17
  22.280        27
  22.300        27
  22.320        17
  22.340        27
  22.360        17
  22.380        22
  22.400        28
  22.420        24
  22.440        19
  22.460        22
  22.480        24
  22.500        21
  22.520        32
  22.540        25
  22.560        28
  22.580        31
  22.600        21
  22.620        25
  22.640        21
  22.660        23
  22.680        19
  22.700        21
  22.720        16
  22.740        25
  22.760        21
  22.780        21
  22.800        29
  22.820        16
  22.840        19
  22.860        16
  22.880        28
  22.900        20
  22.920        23
  22.940        26
  22.960        19
  22.980        19
  23.000        26
  23.020        28
  23.040        32
  23.060        21
  23.080        19
  23.100        24
  23.120        16
  23.140        22
  23.160        22
  23.180        24
  23.200        22
  23.220        24
  23.240        22
  23.260        17
  23.280        13
  23.300        23
  23.320        32
  23.340        20
  23.360        22
  23.380        15
  23.400        24
  23.420        23
  23.440        22
  23.460        21
  23.480        26
  23.500        19
  23.520        29
  23.540        24
  23.560        26
  23.580        21
  23.600        25
  23.620        25
  23.640        24
  23.660        34
  23.680        29
  23.700        29
  23.720        16
  23.740        25
  23.760        25
  23.780        17
  23.800        23
  23.820        16
  23.840        19
  23.860        10
  23.880        23
  23.900        29
  23.920        21
  23.940        22
  23.960        27
  23.980        25
  24.000        27
  24.020        29
  24.040        31
  24.060        16
  24.080        28
  24.100        17
  24.120        16
  24.140        27
  24.160        24
  24.180        24
  24.200        21
  24.220        17
  24.240        26
  24.260        22
  24.280        15
  24.300        30
  24.320        13
  24.340        21
  24.360        17
  24.380        26
  24.400        24
  24.420        17
  24.440        22
  24.460        13
  24.480        27
  24.500        13
  24.520        17
  24.540        27
  24.560        21
  24.580        24
  24.600        16
  24.620        26
  24.640        26
  24.660        29
  24.680        16
  24.700        21
  24.720        20
  24.740        27
  24.760        20
  24.780        23
  24.800        23
  24.820        25
  24.840        24
  24.860        16
  24.880        24
  24.900        16
  24.920        17
  24.940        23
  24.960        22
  24.980        23
  25.000        22
  25.020        25
  25.040        17
  25.060        19
  25.080        24
  25.100        17
  25.120        12
  25.140        24
  25.160        22
  25.180        16
  25.200        23
  25.220        30
  25.240        22
  25.260        24
  25.280        24
  25.300        24
  25.320        27
  25.340        25
  25.360        28
  25.380        28
  25.400        27
  25.420        16
  25.440        46
  25.460        46
  25.480        43
  25.500        47
  25.520        40
  25.540        50
  25.560        53
  25.580        36
  25.600        46
  25.620        43
  25.640        43
  25.660        36
  25.680        31
  25.700        29
